Lambda	Transmission_spectrum	Error_Transmission_spectrum
------	---------------------	---------------------------
5870.000000	1.002706	0.009125
5870.010000	0.994027	0.009073
5870.020000	0.996422	0.009097
5870.030000	0.998776	0.009127
5870.040000	0.993814	0.009095
5870.050000	0.989949	0.009064
5870.060000	0.999953	0.009119
5870.070000	1.014567	0.009194
5870.080000	1.011028	0.009173
5870.090000	0.999118	0.009112
5870.100000	0.992392	0.009084
5870.110000	0.993353	0.009091
5870.120000	1.009427	0.009177
5870.130000	1.014926	0.009199
5870.140000	0.995330	0.009086
5870.150000	0.986780	0.009049
5870.160000	0.998814	0.009123
5870.170000	1.005786	0.009157
5870.180000	1.003974	0.009151
5870.190000	1.000401	0.009135
5870.200000	0.992680	0.009098
5870.210000	0.988333	0.009085
5870.220000	0.994359	0.009119
5870.230000	1.001139	0.009145
5870.240000	1.000515	0.009136
5870.250000	0.999752	0.009133
5870.260000	0.997139	0.009121
5870.270000	0.990954	0.009095
5870.280000	0.991465	0.009100
5870.290000	0.993082	0.009101
5870.300000	0.993497	0.009094
5870.310000	1.000882	0.009125
5870.320000	1.011566	0.009183
5870.330000	1.014302	0.009214
5870.340000	1.012026	0.009206
5870.350000	1.006874	0.009169
5870.360000	0.994543	0.009101
5870.370000	0.985024	0.009046
5870.380000	0.987310	0.009062
5870.390000	0.994038	0.009117
5870.400000	0.995284	0.009125
5870.410000	0.991962	0.009101
5870.420000	0.992529	0.009100
5870.430000	0.996552	0.009106
5870.440000	1.003048	0.009139
5870.450000	1.009295	0.009188
5870.460000	1.004445	0.009173
5870.470000	0.996655	0.009124
5870.480000	1.000028	0.009141
5870.490000	1.007071	0.009183
5870.500000	1.008732	0.009189
5870.510000	1.004490	0.009174
5870.520000	1.002136	0.009161
5870.530000	1.006926	0.009166
5870.540000	1.012216	0.009189
5870.550000	1.010123	0.009195
5870.560000	1.000640	0.009151
5870.570000	0.994216	0.009107
5870.580000	0.999098	0.009127
5870.590000	1.010029	0.009191
5870.600000	1.012461	0.009219
5870.610000	0.999027	0.009145
5870.620000	0.990508	0.009084
5870.630000	0.996120	0.009115
5870.640000	0.998363	0.009125
5870.650000	0.996594	0.009113
5870.660000	1.001770	0.009154
5870.670000	1.009527	0.009194
5870.680000	1.006495	0.009169
5870.690000	1.000682	0.009138
5870.700000	1.002669	0.009135
5870.710000	1.003154	0.009123
5870.720000	1.001580	0.009127
5870.730000	0.999766	0.009128
5870.740000	0.996541	0.009103
5870.750000	0.999512	0.009113
5870.760000	1.002129	0.009120
5870.770000	1.000257	0.009104
5870.780000	1.000781	0.009108
5870.790000	1.001635	0.009116
5870.800000	1.002006	0.009127
5870.810000	1.003658	0.009135
5870.820000	1.006996	0.009141
5870.830000	1.009817	0.009154
5870.840000	1.006120	0.009133
5870.850000	0.998121	0.009089
5870.860000	0.995874	0.009084
5870.870000	0.999089	0.009115
5870.880000	1.005547	0.009154
5870.890000	1.010131	0.009166
5870.900000	1.002332	0.009111
5870.910000	0.993422	0.009052
5870.920000	0.998254	0.009078
5870.930000	1.002684	0.009113
5870.940000	0.999383	0.009099
5870.950000	1.001288	0.009100
5870.960000	1.007608	0.009131
5870.970000	1.006789	0.009139
5870.980000	1.000547	0.009106
5870.990000	0.998593	0.009086
5871.000000	0.998714	0.009095
5871.010000	0.998826	0.009095
5871.020000	0.998655	0.009077
5871.030000	0.996299	0.009071
5871.040000	1.002028	0.009117
5871.050000	1.008467	0.009146
5871.060000	1.001806	0.009108
5871.070000	1.000413	0.009101
5871.080000	1.011338	0.009145
5871.090000	1.014190	0.009156
5871.100000	1.007290	0.009137
5871.110000	1.004567	0.009125
5871.120000	1.003727	0.009111
5871.130000	0.995830	0.009069
5871.140000	0.992025	0.009047
5871.150000	0.998810	0.009084
5871.160000	0.998699	0.009092
5871.170000	0.992583	0.009063
5871.180000	0.996106	0.009083
5871.190000	1.002964	0.009113
5871.200000	1.004831	0.009117
5871.210000	1.002582	0.009106
5871.220000	0.995314	0.009064
5871.230000	0.990435	0.009026
5871.240000	0.998679	0.009083
5871.250000	1.010603	0.009176
5871.260000	1.011577	0.009175
5871.270000	1.004985	0.009097
5871.280000	0.999512	0.009054
5871.290000	0.997619	0.009074
5871.300000	0.997038	0.009091
5871.310000	1.002568	0.009104
5871.320000	1.010856	0.009117
5871.330000	1.004838	0.009083
5871.340000	0.993643	0.009033
5871.350000	0.997341	0.009055
5871.360000	1.010745	0.009143
5871.370000	1.010865	0.009155
5871.380000	0.996733	0.009067
5871.390000	0.994013	0.009045
5871.400000	1.001157	0.009086
5871.410000	1.000721	0.009083
5871.420000	0.995496	0.009047
5871.430000	0.993800	0.009031
5871.440000	0.997323	0.009057
5871.450000	1.005979	0.009110
5871.460000	1.005146	0.009097
5871.470000	0.991262	0.009021
5871.480000	0.992205	0.009034
5871.490000	1.007591	0.009122
5871.500000	1.011836	0.009146
5871.510000	1.009266	0.009125
5871.520000	1.007773	0.009108
5871.530000	1.002765	0.009094
5871.540000	0.995620	0.009071
5871.550000	0.993954	0.009059
5871.560000	1.000419	0.009086
5871.570000	1.004173	0.009095
5871.580000	1.003535	0.009085
5871.590000	1.000919	0.009085
5871.600000	0.994905	0.009065
5871.610000	0.994853	0.009058
5871.620000	0.999821	0.009070
5871.630000	0.999487	0.009064
5871.640000	0.998646	0.009071
5871.650000	0.998765	0.009085
5871.660000	0.998832	0.009076
5871.670000	0.998870	0.009062
5871.680000	1.000227	0.009081
5871.690000	1.001794	0.009103
5871.700000	0.996653	0.009072
5871.710000	0.989954	0.009029
5871.720000	0.989858	0.009023
5871.730000	0.998483	0.009074
5871.740000	1.002599	0.009101
5871.750000	0.999005	0.009080
5871.760000	0.999375	0.009078
5871.770000	0.999373	0.009080
5871.780000	0.995422	0.009080
5871.790000	1.000747	0.009113
5871.800000	1.011028	0.009142
5871.810000	1.005923	0.009096
5871.820000	0.996790	0.009053
5871.830000	1.000161	0.009095
5871.840000	1.006270	0.009151
5871.850000	1.005934	0.009147
5871.860000	1.004427	0.009115
5871.870000	1.002992	0.009102
5871.880000	0.997238	0.009088
5871.890000	0.989286	0.009047
5871.900000	0.989095	0.009030
5871.910000	0.997154	0.009079
5871.920000	1.005783	0.009138
5871.930000	1.004760	0.009123
5871.940000	0.995389	0.009074
5871.950000	0.996006	0.009089
5871.960000	0.999472	0.009108
5871.970000	0.997006	0.009087
5871.980000	1.005072	0.009138
5871.990000	1.016150	0.009217
5872.000000	1.009889	0.009176
5872.010000	0.997703	0.009101
5872.020000	0.995123	0.009103
5872.030000	0.999895	0.009132
5872.040000	1.005159	0.009143
5872.050000	1.002866	0.009119
5872.060000	0.996940	0.009101
5872.070000	0.994019	0.009103
5872.080000	0.996493	0.009113
5872.090000	0.998201	0.009107
5872.100000	0.992562	0.009062
5872.110000	0.992328	0.009068
5872.120000	1.001074	0.009124
5872.130000	1.004286	0.009134
5872.140000	0.997595	0.009088
5872.150000	0.992367	0.009047
5872.160000	0.999033	0.009076
5872.170000	1.004536	0.009117
5872.180000	0.998640	0.009093
5872.190000	0.997664	0.009084
5872.200000	1.000428	0.009094
5872.210000	0.997371	0.009077
5872.220000	0.993705	0.009064
5872.230000	0.993864	0.009072
5872.240000	0.996256	0.009080
5872.250000	0.995267	0.009072
5872.260000	0.995242	0.009075
5872.270000	0.997929	0.009073
5872.280000	0.994223	0.009042
5872.290000	0.995831	0.009056
5872.300000	1.007051	0.009119
5872.310000	1.005540	0.009119
5872.320000	0.996625	0.009082
5872.330000	0.998614	0.009082
5872.340000	1.003306	0.009099
5872.350000	1.002585	0.009106
5872.360000	1.001023	0.009103
5872.370000	1.000528	0.009096
5872.380000	0.996132	0.009069
5872.390000	0.988527	0.009023
5872.400000	0.989143	0.009027
5872.410000	1.000211	0.009094
5872.420000	1.005249	0.009114
5872.430000	0.998964	0.009064
5872.440000	0.994434	0.009035
5872.450000	0.997299	0.009055
5872.460000	0.996788	0.009055
5872.470000	0.990003	0.009027
5872.480000	0.994353	0.009058
5872.490000	1.006059	0.009105
5872.500000	1.005537	0.009093
5872.510000	1.000146	0.009070
5872.520000	0.999550	0.009063
5872.530000	1.000032	0.009061
5872.540000	1.000973	0.009066
5872.550000	0.999129	0.009056
5872.560000	0.991470	0.009020
5872.570000	0.991933	0.009030
5872.580000	1.002901	0.009102
5872.590000	1.006495	0.009121
5872.600000	0.999166	0.009061
5872.610000	0.991468	0.009014
5872.620000	0.995921	0.009046
5872.630000	1.006365	0.009102
5872.640000	1.001618	0.009072
5872.650000	0.986219	0.008990
5872.660000	0.981104	0.008970
5872.670000	0.990110	0.009026
5872.680000	0.995682	0.009060
5872.690000	0.993632	0.009042
5872.700000	0.993742	0.009027
5872.710000	0.992747	0.009025
5872.720000	0.995237	0.009058
5872.730000	1.002511	0.009098
5872.740000	1.004653	0.009078
5872.750000	1.009028	0.009085
5872.760000	1.014114	0.009127
5872.770000	1.006745	0.009093
5872.780000	1.000203	0.009059
5872.790000	1.004451	0.009093
5872.800000	1.005707	0.009092
5872.810000	1.001401	0.009065
5872.820000	1.002080	0.009089
5872.830000	1.007828	0.009125
5872.840000	1.005874	0.009093
5872.850000	0.992982	0.009003
5872.860000	0.987767	0.008987
5872.870000	1.005261	0.009115
5872.880000	1.016141	0.009182
5872.890000	1.011161	0.009142
5872.900000	1.009486	0.009123
5872.910000	1.001958	0.009085
5872.920000	0.991447	0.009034
5872.930000	0.996515	0.009059
5872.940000	1.010382	0.009129
5872.950000	1.008925	0.009113
5872.960000	0.987523	0.008996
5872.970000	0.973398	0.008922
5872.980000	0.985328	0.008989
5872.990000	1.000302	0.009077
5873.000000	0.999397	0.009062
5873.010000	0.997617	0.009034
5873.020000	1.004613	0.009073
5873.030000	1.000332	0.009063
5873.040000	0.981635	0.008971
5873.050000	0.980882	0.008960
5873.060000	0.997295	0.009040
5873.070000	1.000817	0.009059
5873.080000	0.995235	0.009021
5873.090000	0.993781	0.009010
5873.100000	0.995277	0.009031
5873.110000	0.998389	0.009059
5873.120000	0.999759	0.009065
5873.130000	1.000253	0.009064
5873.140000	1.003223	0.009089
5873.150000	1.002913	0.009095
5873.160000	1.000885	0.009078
5873.170000	1.006498	0.009096
5873.180000	1.007598	0.009096
5873.190000	0.997497	0.009042
5873.200000	0.990627	0.009001
5873.210000	0.995219	0.009030
5873.220000	1.004871	0.009104
5873.230000	1.005465	0.009112
5873.240000	0.997468	0.009055
5873.250000	0.995990	0.009042
5873.260000	0.998539	0.009054
5873.270000	0.994241	0.009034
5873.280000	0.992499	0.009038
5873.290000	0.997982	0.009068
5873.300000	1.000984	0.009074
5873.310000	0.999841	0.009062
5873.320000	0.995226	0.009043
5873.330000	0.991743	0.009037
5873.340000	0.992037	0.009031
5873.350000	0.993348	0.009036
5873.360000	0.999153	0.009086
5873.370000	1.007218	0.009124
5873.380000	1.010532	0.009123
5873.390000	1.008707	0.009117
5873.400000	1.006218	0.009127
5873.410000	1.004479	0.009126
5873.420000	1.001771	0.009101
5873.430000	0.996270	0.009072
5873.440000	0.996049	0.009081
5873.450000	1.001000	0.009118
5873.460000	0.998424	0.009097
5873.470000	0.994807	0.009069
5873.480000	0.997166	0.009082
5873.490000	0.998570	0.009098
5873.500000	0.999710	0.009119
5873.510000	1.005801	0.009147
5873.520000	1.006059	0.009135
5873.530000	0.994329	0.009080
5873.540000	0.995194	0.009100
5873.550000	1.010436	0.009174
5873.560000	1.014924	0.009188
5873.570000	1.006102	0.009154
5873.580000	0.995509	0.009118
5873.590000	0.995831	0.009124
5873.600000	1.003804	0.009155
5873.610000	1.001268	0.009126
5873.620000	0.994050	0.009096
5873.630000	0.996604	0.009140
5873.640000	1.003349	0.009186
5873.650000	1.008986	0.009199
5873.660000	1.009904	0.009192
5873.670000	1.003683	0.009175
5873.680000	0.997682	0.009179
5873.690000	0.999398	0.009214
5873.700000	1.004487	0.009249
5873.710000	1.003587	0.009240
5873.720000	1.000251	0.009239
5873.730000	0.996883	0.009252
5873.740000	0.990477	0.009224
5873.750000	0.987994	0.009205
5873.760000	0.997904	0.009269
5873.770000	1.006908	0.009321
5873.780000	1.004519	0.009292
5873.790000	1.003317	0.009303
5873.800000	1.000774	0.009302
5873.810000	0.999020	0.009266
5873.820000	1.005561	0.009300
5873.830000	1.008127	0.009348
5873.840000	1.001817	0.009324
5873.850000	0.995148	0.009267
5873.860000	0.991256	0.009235
5873.870000	0.988429	0.009225
5873.880000	0.994608	0.009262
5873.890000	1.005474	0.009324
5873.900000	1.005809	0.009322
5873.910000	1.001508	0.009294
5873.920000	0.994845	0.009264
5873.930000	0.994789	0.009283
5873.940000	1.007456	0.009352
5873.950000	1.010075	0.009345
5873.960000	1.005894	0.009311
5873.970000	1.009705	0.009336
5873.980000	1.006365	0.009321
5873.990000	0.990283	0.009227
5874.000000	0.980237	0.009153
5874.010000	0.988698	0.009196
5874.020000	1.004731	0.009300
5874.030000	1.006139	0.009324
5874.040000	0.991451	0.009242
5874.050000	0.984230	0.009179
5874.060000	0.986909	0.009177
5874.070000	0.992446	0.009200
5874.080000	1.005786	0.009269
5874.090000	1.013146	0.009310
5874.100000	1.004780	0.009249
5874.110000	0.997312	0.009199
5874.120000	1.000857	0.009231
5874.130000	1.004645	0.009265
5874.140000	1.001175	0.009242
5874.150000	0.996148	0.009198
5874.160000	0.994565	0.009180
5874.170000	0.998409	0.009194
5874.180000	1.006476	0.009225
5874.190000	1.005991	0.009215
5874.200000	0.995857	0.009166
5874.210000	0.994743	0.009165
5874.220000	1.002690	0.009204
5874.230000	1.003351	0.009203
5874.240000	1.000035	0.009177
5874.250000	1.007754	0.009218
5874.260000	1.019218	0.009297
5874.270000	1.012308	0.009267
5874.280000	0.995273	0.009168
5874.290000	0.994568	0.009157
5874.300000	1.009058	0.009240
5874.310000	1.018674	0.009299
5874.320000	1.013199	0.009257
5874.330000	1.003483	0.009188
5874.340000	1.000185	0.009169
5874.350000	1.003214	0.009189
5874.360000	1.007715	0.009218
5874.370000	1.004843	0.009197
5874.380000	1.000954	0.009159
5874.390000	1.003872	0.009168
5874.400000	1.004335	0.009172
5874.410000	0.999946	0.009148
5874.420000	0.999921	0.009141
5874.430000	1.000918	0.009148
5874.440000	0.997426	0.009141
5874.450000	0.991856	0.009099
5874.460000	0.990240	0.009083
5874.470000	0.998256	0.009135
5874.480000	1.006549	0.009171
5874.490000	1.004926	0.009162
5874.500000	1.001182	0.009156
5874.510000	0.998431	0.009152
5874.520000	0.995567	0.009128
5874.530000	0.996938	0.009112
5874.540000	0.999055	0.009125
5874.550000	1.004076	0.009169
5874.560000	1.010059	0.009206
5874.570000	1.006365	0.009182
5874.580000	0.995616	0.009110
5874.590000	0.989592	0.009069
5874.600000	0.993537	0.009096
5874.610000	1.000354	0.009136
5874.620000	1.002345	0.009135
5874.630000	1.002274	0.009131
5874.640000	1.001349	0.009132
5874.650000	0.998931	0.009117
5874.660000	1.002843	0.009141
5874.670000	1.005639	0.009155
5874.680000	1.003101	0.009127
5874.690000	1.002123	0.009124
5874.700000	0.997409	0.009118
5874.710000	0.990679	0.009083
5874.720000	0.991010	0.009060
5874.730000	1.000295	0.009096
5874.740000	1.006526	0.009139
5874.750000	1.000175	0.009114
5874.760000	0.998748	0.009103
5874.770000	1.003935	0.009116
5874.780000	0.998560	0.009085
5874.790000	0.988961	0.009041
5874.800000	0.988264	0.009023
5874.810000	0.993289	0.009040
5874.820000	0.997306	0.009075
5874.830000	0.996692	0.009076
5874.840000	0.995760	0.009058
5874.850000	1.000500	0.009072
5874.860000	1.001370	0.009084
5874.870000	0.993437	0.009062
5874.880000	0.985791	0.009029
5874.890000	0.984850	0.009016
5874.900000	0.993068	0.009050
5874.910000	0.998416	0.009069
5874.920000	0.991391	0.009026
5874.930000	0.987485	0.009004
5874.940000	0.994091	0.009032
5874.950000	0.997444	0.009052
5874.960000	0.998056	0.009060
5874.970000	1.004357	0.009088
5874.980000	1.006914	0.009100
5874.990000	0.997497	0.009051
5875.000000	0.985511	0.008984
5875.010000	0.984378	0.008984
5875.020000	0.991107	0.009028
5875.030000	0.994632	0.009031
5875.040000	0.993348	0.009009
5875.050000	0.997192	0.009041
5875.060000	1.007652	0.009109
5875.070000	1.013940	0.009144
5875.080000	1.009795	0.009119
5875.090000	0.994126	0.009024
5875.100000	0.983476	0.008957
5875.110000	0.989390	0.008987
5875.120000	0.996240	0.009037
5875.130000	0.997823	0.009066
5875.140000	0.995863	0.009062
5875.150000	0.986165	0.008998
5875.160000	0.983686	0.008970
5875.170000	0.989701	0.008996
5875.180000	0.990571	0.009002
5875.190000	0.994746	0.009029
5875.200000	1.001811	0.009060
5875.210000	1.001584	0.009058
5875.220000	0.997285	0.009049
5875.230000	0.995873	0.009056
5875.240000	0.998213	0.009061
5875.250000	1.002378	0.009070
5875.260000	1.005711	0.009084
5875.270000	1.005091	0.009102
5875.280000	0.994477	0.009080
5875.290000	0.990099	0.009040
5875.300000	1.000260	0.009056
5875.310000	1.002719	0.009074
5875.320000	1.001648	0.009090
5875.330000	1.006623	0.009115
5875.340000	1.003950	0.009088
5875.350000	1.001362	0.009068
5875.360000	1.002667	0.009086
5875.370000	1.000789	0.009088
5875.380000	1.003814	0.009106
5875.390000	1.003666	0.009103
5875.400000	0.996367	0.009064
5875.410000	0.999144	0.009076
5875.420000	1.002326	0.009089
5875.430000	0.993270	0.009052
5875.440000	0.992168	0.009050
5875.450000	0.998043	0.009064
5875.460000	0.995188	0.009041
5875.470000	0.993458	0.009047
5875.480000	1.003242	0.009112
5875.490000	1.009832	0.009131
5875.500000	1.001537	0.009073
5875.510000	0.997673	0.009066
5875.520000	1.005040	0.009112
5875.530000	1.007158	0.009118
5875.540000	1.001840	0.009078
5875.550000	1.001575	0.009068
5875.560000	1.008030	0.009118
5875.570000	1.008906	0.009135
5875.580000	0.999815	0.009092
5875.590000	0.993268	0.009052
5875.600000	1.001033	0.009079
5875.610000	1.011430	0.009133
5875.620000	1.012747	0.009151
5875.630000	1.005745	0.009134
5875.640000	0.999403	0.009111
5875.650000	0.999051	0.009095
5875.660000	0.993709	0.009052
5875.670000	0.989382	0.009033
5875.680000	0.997472	0.009090
5875.690000	1.005064	0.009127
5875.700000	1.001343	0.009092
5875.710000	0.993771	0.009051
5875.720000	0.995158	0.009067
5875.730000	0.999689	0.009096
5875.740000	0.996740	0.009081
5875.750000	0.995811	0.009074
5875.760000	1.000669	0.009094
5875.770000	1.001164	0.009096
5875.780000	0.995643	0.009080
5875.790000	0.994057	0.009080
5875.800000	0.999013	0.009098
5875.810000	0.999994	0.009087
5875.820000	1.001349	0.009078
5875.830000	1.010094	0.009135
5875.840000	1.010441	0.009157
5875.850000	0.997591	0.009088
5875.860000	0.994502	0.009066
5875.870000	1.005558	0.009132
5875.880000	1.009737	0.009151
5875.890000	1.009085	0.009153
5875.900000	1.010833	0.009191
5875.910000	1.001544	0.009135
5875.920000	0.994740	0.009068
5875.930000	1.004240	0.009111
5875.940000	1.006701	0.009131
5875.950000	0.996436	0.009086
5875.960000	0.997898	0.009105
5875.970000	1.007577	0.009158
5875.980000	1.004593	0.009151
5875.990000	0.999295	0.009134
5876.000000	1.001489	0.009143
5876.010000	0.999132	0.009127
5876.020000	0.992278	0.009094
5876.030000	0.988822	0.009063
5876.040000	0.992512	0.009073
5876.050000	0.997030	0.009113
5876.060000	0.996927	0.009122
5876.070000	1.000873	0.009130
5876.080000	1.008578	0.009163
5876.090000	1.007827	0.009162
5876.100000	1.001027	0.009127
5876.110000	1.001259	0.009126
5876.120000	1.006477	0.009152
5876.130000	1.005845	0.009135
5876.140000	1.006416	0.009132
5876.150000	1.007734	0.009154
5876.160000	1.001688	0.009124
5876.170000	1.001170	0.009111
5876.180000	1.004807	0.009133
5876.190000	1.001552	0.009122
5876.200000	1.004347	0.009142
5876.210000	1.007835	0.009159
5876.220000	0.999112	0.009101
5876.230000	0.992865	0.009056
5876.240000	0.994121	0.009068
5876.250000	0.994659	0.009098
5876.260000	0.995463	0.009115
5876.270000	1.002255	0.009133
5876.280000	1.004634	0.009127
5876.290000	0.998456	0.009097
5876.300000	0.997746	0.009102
5876.310000	1.000466	0.009110
5876.320000	0.997702	0.009089
5876.330000	0.998462	0.009092
5876.340000	1.009216	0.009166
5876.350000	1.010436	0.009203
5876.360000	0.991315	0.009091
5876.370000	0.984146	0.009023
5876.380000	0.998073	0.009092
5876.390000	1.005828	0.009146
5876.400000	1.003031	0.009136
